| Temperature | Energy-Mean | Magnetization-Mean |  Specific heat  | Susceptibility |
             2.2      -1.5461264      0.78375501       1.4042378       4.6837476
           2.225      -1.5092233      0.74744154       1.5770546       7.5669768
            2.25       -1.463341      0.68267602       1.8715903        16.41571
           2.275      -1.4170723      0.61271767       2.0098011       23.412315
             2.3      -1.3676757      0.52609797       1.9930773       29.845082
           2.325      -1.3195468      0.43870607        1.820402       30.512622
            2.35      -1.2783513      0.36763403       1.6281897       28.320881
           2.375      -1.2396207      0.30074255       1.3730097       23.114497
             2.4      -1.2059556      0.25061466       1.2047593       18.404212
             2.2      -1.5465756      0.78471921       1.4135894       4.9573825
           2.225      -1.5092674       0.7460999       1.6070925        9.268581
            2.25      -1.4641367      0.67803126        1.966525       26.772005
           2.275       -1.413425      0.58538703       2.1754133        44.01827
             2.3      -1.3614345      0.47382793       2.1249511       57.801923
           2.325      -1.3079898       0.3295085       1.7651464        56.19149
            2.35      -1.2678558      0.25426769        1.470828       41.832874
           2.375      -1.2343508      0.20522152       1.2600245       29.811804
             2.4      -1.2048505      0.17295527       1.1358429       22.027021
             2.2      -1.5461429      0.78418816       1.4171713       4.8348986
           2.225      -1.5080613      0.74264582       1.6402385       10.288966
            2.25      -1.4637729      0.67838627       1.9583388       27.567427
           2.275      -1.4073782      0.54019894       2.3940642       88.640953
             2.3      -1.3507097      0.37874009        2.130248        102.8674
           2.325      -1.3036319      0.25834687       1.6734549       74.733901
            2.35      -1.2665061      0.19653893       1.4104038       51.126684
           2.375      -1.2333969      0.15274793       1.2457086       32.295708
             2.4      -1.2040827      0.12663397       1.1213188       22.790595
             2.2      -1.5466868      0.78532567       1.4172938       4.6420253
           2.225      -1.5087739      0.74476572       1.6385946       9.7697156
            2.25      -1.4632837      0.67380025       2.0745459        36.93297
           2.275      -1.4086904      0.54179143        2.376297       106.90797
             2.3       -1.347713       0.3300238       2.0541578       134.29814
           2.325      -1.3022586      0.20862575       1.6280034         90.1458
            2.35      -1.2657863       0.1568334       1.3708493       53.825278
           2.375      -1.2332672      0.12113529       1.2200199       33.714587
             2.4      -1.2039408       0.1030051       1.1262992       24.340825
